File: eZ.msa
#FORMAT      : EMSA/MAS Spectral Data File
#VERSION     : 1.0
#DATE        :
#TIME        :
#OWNER       :
#NPOINTS     : 2048
#NCOLUMNS    : 1
#DATATYPE    : Y
#SIGNALTYPE  : EELS
#XPERCHAN    : 1.0
#OFFSET      : -0.0
#XLABEL      : x
#XUNITS      :
#COMMENT     : File created by HyperSpy version 1.3
#TITLE       : singleframeZL_1D_0.05 1024 channels extrapolated
#SPECTRUM    : Spectral Data Starts Here
34,
4.000000,
13,
36,
26,
23,
32,
3.000000,
26,
18,
1.000000,
29,
18,
11,
14,
5.000000,
5.000000,
14,
-8.000000,
-17,
40,
24,
18,
39,
10,
0.000000,
14,
-1.000000,
-4.000000,
-6.000000,
20,
1.000000,
21,
-1.000000,
30,
-1.000000,
9.000000,
-11,
0.000000,
15,
10,
19,
21,
20,
16,
17,
1.000000,
15,
20,
18,
29,
46,
40,
33,
43,
62,
53,
67,
102,
123,
175,
273,
440,
947,
2609,
9053,
29175,
48909,
27510,
6087,
1612,
675,
373,
234,
149,
132,
74,
66,
48,
55,
37,
35,
44,
37,
17,
17,
34,
-4.000000,
24,
13,
40,
4.000000,
-9.000000,
28,
23,
-1.000000,
23,
41,
17,
33,
-11,
-5.000000,
10,
21,
14,
13,
12,
3.000000,
10,
7.000000,
15,
-4.000000,
14,
15,
27,
32,
22,
6.000000,
18,
27,
15,
8.000000,
8.000000,
15,
15,
6.000000,
13,
-8.000000,
16,
29,
1.000000,
-3.000000,
35,
11,
28,
4.000000,
20,
19,
43,
14,
1.000000,
33,
18,
13,
24,
-15,
8.000000,
11,
11,
11,
11,
11,
11,
11,
11,
11,
11,
11,
11,
11,
11,
11,
11,
11,
11,
11,
11,
11,
11,
11,
11,
11,
11,
11,
11,
11,
11,
11,
11,
11,
11,
11,
11,
11,
11,
11,
11,
11,
11,
11,
11,
11,
11,
11,
11,
11,
11,
11,
11,
11,
11,
11,
11,
11,
11,
11,
11,
11,
11,
11,
11,
11,
11,
11,
11,
11,
11,
11,
11,
11,
11,
11,
11,
11,
11,
11,
11,
11,
11,
11,
11,
11,
11,
11,
11,
11,
11,
11,
11,
11,
11,
11,
11,
11,
11,
11,
11,
11,
11,
11,
11,
11,
11,
11,
11,
11,
11,
11,
11,
11,
11,
11,
11,
11,
11,
11,
11,
11,
11,
11,
11,
11,
11,
11,
11,
11,
11,
11,
11,
11,
11,
11,
11,
11,
11,
11,
11,
11,
11,
11,
11,
11,
11,
11,
#ENDOFDATA   : End Of Data and File